Time(s),Ch 1  (V),
0.000000,4.196438
5.000000E-8,4.106438
1.000000E-7,4.437375
1.500000E-7,4.029250
2.000000E-7,4.037687
2.500000E-7,4.084250
3.000000E-7,4.047375
3.500000E-7,3.964875
4.000000E-7,4.014875
4.500000E-7,4.066438
5.000000E-7,3.975500
5.500000E-7,3.888000
6.000000E-7,3.883938
6.500000E-7,3.891437
7.000000E-7,3.880813
7.500000E-7,3.837063
8.000000E-7,3.804563
8.500000E-7,3.796438
9.000000E-7,3.761750
9.500000E-7,3.734875
1.000000E-6,3.735500
1.050000E-6,3.716750
1.100000E-6,3.662375
1.150000E-6,3.651438
1.200000E-6,3.641750
1.250000E-6,3.614562
1.300000E-6,3.586125
1.350000E-6,3.568313
1.400000E-6,3.553625
1.450000E-6,3.553313
1.500000E-6,3.534875
1.550000E-6,3.484875
1.600000E-6,3.462687
1.650000E-6,3.432688
1.700000E-6,3.423000
1.750000E-6,3.412063
1.800000E-6,3.393000
1.850000E-6,3.368313
1.900000E-6,3.367375
1.950000E-6,3.321125
2.000000E-6,3.283937
2.050000E-6,3.284875
2.100000E-6,3.287688
2.150000E-6,3.259250
2.200000E-6,3.211750
2.250000E-6,3.200813
2.300000E-6,3.164250
2.350000E-6,3.160500
2.400000E-6,3.135813
2.450000E-6,3.141750
2.500000E-6,3.117375
2.550000E-6,3.076437
2.600000E-6,3.052375
2.650000E-6,3.022687
2.700000E-6,3.022063
2.750000E-6,2.983000
2.800000E-6,2.993313
2.850000E-6,2.964250
2.900000E-6,2.938938
2.950000E-6,2.938938
3.000000E-6,2.899250
3.050000E-6,2.887688
3.100000E-6,2.898625
3.150000E-6,2.859250
3.200000E-6,2.870188
3.250000E-6,2.815187
3.300000E-6,2.808000
3.350000E-6,2.782375
3.400000E-6,2.771438
3.450000E-6,2.771125
3.500000E-6,2.743000
3.550000E-6,2.706438
3.600000E-6,2.687375
3.650000E-6,2.652375
3.700000E-6,2.665812
3.750000E-6,2.644250
3.800000E-6,2.637375
3.850000E-6,2.618937
3.900000E-6,2.585812
3.950000E-6,2.586438
4.000000E-6,2.549562
4.050000E-6,2.539250
4.100000E-6,2.539250
4.150000E-6,2.495188
4.200000E-6,2.476750
4.250000E-6,2.480812
4.300000E-6,2.477063
4.350000E-6,2.408000
4.400000E-6,2.426125
4.450000E-6,2.415188
4.500000E-6,2.400813
4.550000E-6,2.357375
4.600000E-6,2.345813
4.650000E-6,2.349563
4.700000E-6,2.321125
4.750000E-6,2.316750
4.800000E-6,2.306125
4.850000E-6,2.299250
4.900000E-6,2.277062
4.950000E-6,2.262375
5.000000E-6,2.248312
5.050000E-6,2.248000
5.100000E-6,2.225812
5.150000E-6,2.193625
5.200000E-6,2.175813
5.250000E-6,2.182375
5.300000E-6,2.149563
5.350000E-6,2.139563
5.400000E-6,2.152687
5.450000E-6,2.117062
5.500000E-6,2.099250
5.550000E-6,2.091438
5.600000E-6,2.055500
5.650000E-6,2.077063
5.700000E-6,2.047687
5.750000E-6,2.026125
5.800000E-6,2.011750
5.850000E-6,2.015500
5.900000E-6,1.978938
5.950000E-6,2.000500
6.000000E-6,1.971750
6.050000E-6,1.942063
6.100000E-6,1.946438
6.150000E-6,1.938937
6.200000E-6,1.906125
6.250000E-6,1.917063
6.300000E-6,1.862375
6.350000E-6,1.881125
6.400000E-6,1.888000
6.450000E-6,1.877063
6.500000E-6,1.848000
6.550000E-6,1.844563
6.600000E-6,1.815187
6.650000E-6,1.811438
6.700000E-6,1.793313
6.750000E-6,1.804563
6.800000E-6,1.771750
6.850000E-6,1.771750
6.900000E-6,1.764250
6.950000E-6,1.727688
7.000000E-6,1.735500
7.050000E-6,1.731750
7.100000E-6,1.713313
7.150000E-6,1.688000
7.200000E-6,1.677063
7.250000E-6,1.680813
7.300000E-6,1.647687
7.350000E-6,1.651750
7.400000E-6,1.655500
7.450000E-6,1.655500
7.500000E-6,1.611125
7.550000E-6,1.615500
7.600000E-6,1.600500
7.650000E-6,1.589875
7.700000E-6,1.542687
7.750000E-6,1.564250
7.800000E-6,1.546750
7.850000E-6,1.546125
7.900000E-6,1.513313
7.950000E-6,1.513000
8.000000E-6,1.514250
8.050000E-6,1.520188
8.100000E-6,1.495500
8.150000E-6,1.509563
8.200000E-6,1.469563
8.250000E-6,1.455812
8.300000E-6,1.447688
8.350000E-6,1.451750
8.400000E-6,1.441125
8.450000E-6,1.443625
8.500000E-6,1.404250
8.550000E-6,1.397375
8.600000E-6,1.397687
8.650000E-6,1.386125
8.700000E-6,1.368313
8.750000E-6,1.371125
8.800000E-6,1.360188
8.850000E-6,1.350188
8.900000E-6,1.357063
8.950000E-6,1.335187
9.000000E-6,1.353625
9.050000E-6,1.338625
9.100000E-6,1.295500
9.150000E-6,1.288312
9.200000E-6,1.277062
9.250000E-6,1.283625
9.300000E-6,1.252375
9.350000E-6,1.262063
9.400000E-6,1.237375
9.450000E-6,1.240813
9.500000E-6,1.215188
9.550000E-6,1.196750
9.600000E-6,1.222687
9.650000E-6,1.193312
9.700000E-6,1.193938
9.750000E-6,1.215188
9.800000E-6,1.193625
9.850000E-6,1.196438
9.900000E-6,1.182063
9.950000E-6,1.161750
1.000000E-5,1.181750
1.005000E-5,1.153938
1.010000E-5,1.145813
1.015000E-5,1.124563
1.020000E-5,1.128000
1.025000E-5,1.135500
1.030000E-5,1.113625
1.035000E-5,1.112688
1.040000E-5,1.095500
1.045000E-5,1.110188
1.050000E-5,1.080188
1.055000E-5,1.081125
1.060000E-5,1.069875
1.065000E-5,1.073000
1.070000E-5,1.059250
1.075000E-5,1.062375
1.080000E-5,1.052063
1.085000E-5,1.037062
1.090000E-5,1.026125
1.095000E-5,1.007688
1.100000E-5,1.007688
1.105000E-5,1.023000
1.110000E-5,0.986125
1.115000E-5,1.004875
1.120000E-5,1.014563
1.125000E-5,0.979250
1.130000E-5,0.978625
1.135000E-5,0.983313
1.140000E-5,0.975187
1.145000E-5,0.953313
1.150000E-5,0.938937
1.155000E-5,0.935188
1.160000E-5,0.949875
1.165000E-5,0.957063
1.170000E-5,0.935188
1.175000E-5,0.923937
1.180000E-5,0.920500
1.185000E-5,0.910188
1.190000E-5,0.888000
1.195000E-5,0.891750
1.200000E-5,0.899250
1.205000E-5,0.880500
1.210000E-5,0.880188
1.215000E-5,0.870812
1.220000E-5,0.873313
1.225000E-5,0.858625
1.230000E-5,0.826125
1.235000E-5,0.873313
1.240000E-5,0.863000
1.245000E-5,0.829250
1.250000E-5,0.833313
1.255000E-5,0.797375
1.260000E-5,0.808000
1.265000E-5,0.811750
1.270000E-5,0.808000
1.275000E-5,0.826438
1.280000E-5,0.807688
1.285000E-5,0.789563
1.290000E-5,0.789875
1.295000E-5,0.779250
1.300000E-5,0.814875
1.305000E-5,0.783000
1.310000E-5,0.789563
1.315000E-5,0.753625
1.320000E-5,0.767375
1.325000E-5,0.739563
1.330000E-5,0.750188
1.335000E-5,0.763625
1.340000E-5,0.753938
1.345000E-5,0.746125
1.350000E-5,0.735500
1.355000E-5,0.731125
1.360000E-5,0.720812
1.365000E-5,0.698937
1.370000E-5,0.731750
1.375000E-5,0.688000
1.380000E-5,0.706125
1.385000E-5,0.673000
1.390000E-5,0.681125
1.395000E-5,0.691438
1.400000E-5,0.684250
1.405000E-5,0.673625
1.410000E-5,0.673625
1.415000E-5,0.677375
1.420000E-5,0.680500
1.425000E-5,0.648000
1.430000E-5,0.662375
1.435000E-5,0.669875
1.440000E-5,0.658625
1.445000E-5,0.644875
1.450000E-5,0.629875
1.455000E-5,0.633313
1.460000E-5,0.637375
1.465000E-5,0.611125
1.470000E-5,0.629875
1.475000E-5,0.637062
1.480000E-5,0.629563
1.485000E-5,0.619250
1.490000E-5,0.582688
1.495000E-5,0.618625
1.500000E-5,0.604250
1.505000E-5,0.578937
1.510000E-5,0.586438
1.515000E-5,0.604250
1.520000E-5,0.578625
1.525000E-5,0.586125
1.530000E-5,0.575813
1.535000E-5,0.597063
1.540000E-5,0.575187
1.545000E-5,0.553312
1.550000E-5,0.578937
1.555000E-5,0.560500
1.560000E-5,0.575500
1.565000E-5,0.564875
1.570000E-5,0.553000
1.575000E-5,0.553312
1.580000E-5,0.524563
1.585000E-5,0.535188
1.590000E-5,0.535188
1.595000E-5,0.528312
1.600000E-5,0.538625
1.605000E-5,0.542375
1.610000E-5,0.495188
1.615000E-5,0.535500
1.620000E-5,0.491438
1.625000E-5,0.517687
1.630000E-5,0.523938
1.635000E-5,0.517375
1.640000E-5,0.498938
1.645000E-5,0.506125
1.650000E-5,0.473625
1.655000E-5,0.498312
1.660000E-5,0.484563
1.665000E-5,0.484563
1.670000E-5,0.491438
1.675000E-5,0.488312
1.680000E-5,0.484563
1.685000E-5,0.458625
1.690000E-5,0.469875
1.695000E-5,0.480813
1.700000E-5,0.454875
1.705000E-5,0.458625
1.710000E-5,0.455813
1.715000E-5,0.458625
1.720000E-5,0.451750
1.725000E-5,0.444250
1.730000E-5,0.477375
1.735000E-5,0.473313
1.740000E-5,0.426125
1.745000E-5,0.448000
1.750000E-5,0.433625
1.755000E-5,0.418625
1.760000E-5,0.408000
1.765000E-5,0.423313
1.770000E-5,0.443937
1.775000E-5,0.440500
1.780000E-5,0.422687
1.785000E-5,0.422063
1.790000E-5,0.419563
1.795000E-5,0.440500
1.800000E-5,0.437063
1.805000E-5,0.437063
1.810000E-5,0.404562
1.815000E-5,0.393313
1.820000E-5,0.357063
1.825000E-5,0.415500
1.830000E-5,0.400500
1.835000E-5,0.408313
1.840000E-5,0.386125
1.845000E-5,0.388937
1.850000E-5,0.394250
1.855000E-5,0.407688
1.860000E-5,0.375500
1.865000E-5,0.397375
1.870000E-5,0.371438
1.875000E-5,0.389875
1.880000E-5,0.356750
1.885000E-5,0.364875
1.890000E-5,0.396750
1.895000E-5,0.371438
1.900000E-5,0.346438
1.905000E-5,0.378937
1.910000E-5,0.346125
1.915000E-5,0.375500
1.920000E-5,0.328000
1.925000E-5,0.345813
1.930000E-5,0.386437
1.935000E-5,0.346125
1.940000E-5,0.346125
1.945000E-5,0.313625
1.950000E-5,0.349562
1.955000E-5,0.324250
1.960000E-5,0.317375
1.965000E-5,0.346125
1.970000E-5,0.346438
1.975000E-5,0.338313
1.980000E-5,0.328000
1.985000E-5,0.339250
1.990000E-5,0.331437
1.995000E-5,0.342688
2.000000E-5,0.305812
2.005000E-5,0.310188
2.010000E-5,0.313312
2.015000E-5,0.302687
2.020000E-5,0.317063
2.025000E-5,0.309875
2.030000E-5,0.306125
2.035000E-5,0.323937
2.040000E-5,0.292375
2.045000E-5,0.298625
2.050000E-5,0.306125
2.055000E-5,0.327688
2.060000E-5,0.295813
2.065000E-5,0.298312
2.070000E-5,0.291750
2.075000E-5,0.295813
2.080000E-5,0.280187
2.085000E-5,0.303000
2.090000E-5,0.269875
2.095000E-5,0.287687
2.100000E-5,0.273313
2.105000E-5,0.273625
2.110000E-5,0.288313
2.115000E-5,0.277375
2.120000E-5,0.273000
2.125000E-5,0.302375
2.130000E-5,0.291750
2.135000E-5,0.273625
2.140000E-5,0.298938
2.145000E-5,0.255188
2.150000E-5,0.255188
2.155000E-5,0.284250
2.160000E-5,0.284562
2.165000E-5,0.266437
2.170000E-5,0.258937
2.175000E-5,0.269250
2.180000E-5,0.248312
2.185000E-5,0.251437
2.190000E-5,0.259250
2.195000E-5,0.273313
2.200000E-5,0.240813
2.205000E-5,0.251750
2.210000E-5,0.262063
2.215000E-5,0.259563
2.220000E-5,0.247688
2.225000E-5,0.259250
2.230000E-5,0.279875
2.235000E-5,0.244250
2.240000E-5,0.255812
2.245000E-5,0.237687
2.250000E-5,0.243313
2.255000E-5,0.230188
2.260000E-5,0.258625
2.265000E-5,0.226438
2.270000E-5,0.248000
2.275000E-5,0.218938
2.280000E-5,0.233000
2.285000E-5,0.241125
2.290000E-5,0.255812
2.295000E-5,0.251437
2.300000E-5,0.251125
2.305000E-5,0.222375
2.310000E-5,0.226438
2.315000E-5,0.204563
2.320000E-5,0.248000
2.325000E-5,0.226125
2.330000E-5,0.240813
2.335000E-5,0.222375
2.340000E-5,0.215500
2.345000E-5,0.222375
2.350000E-5,0.218938
2.355000E-5,0.200500
2.360000E-5,0.215188
2.365000E-5,0.201437
2.370000E-5,0.236437
2.375000E-5,0.215500
2.380000E-5,0.197375
2.385000E-5,0.218938
2.390000E-5,0.215188
2.395000E-5,0.189562
2.400000E-5,0.219250
2.405000E-5,0.189250
2.410000E-5,0.200813
2.415000E-5,0.187062
2.420000E-5,0.221750
2.425000E-5,0.193312
2.430000E-5,0.208313
2.435000E-5,0.178625
2.440000E-5,0.168313
2.445000E-5,0.189875
2.450000E-5,0.182375
2.455000E-5,0.160812
2.460000E-5,0.175187
2.465000E-5,0.204563
2.470000E-5,0.193312
2.475000E-5,0.182688
2.480000E-5,0.182688
2.485000E-5,0.167688
2.490000E-5,0.208625
2.495000E-5,0.181750
