Time(s),Position(V)
0.357000,2.828029
3.380000,2.811881
6.380000,2.811474
9.379000,2.817803
12.379000,2.818568
15.379000,2.791746
18.379000,2.782133
21.379000,2.765812
24.377000,2.749671
27.378000,2.731647
30.378000,2.710102
33.378000,2.686037
36.378000,2.661703
39.378000,2.634379
42.376000,2.604990
45.376000,2.569731
48.377000,2.536831
51.377000,2.497955
54.377000,2.457205
57.375000,2.414563
60.376000,2.371910
63.376000,2.324001
66.375000,2.279121
69.375000,2.229839
72.375000,2.177974
75.375000,2.125710
78.375000,2.073576
81.373000,2.017835
84.373000,1.961360
87.374000,1.904178
90.374000,1.845248
93.374000,1.786288
96.372000,1.728922
99.372000,1.668330
102.372000,1.606820
105.373000,1.545514
108.373000,1.480659
111.373000,1.417562
114.371000,1.349661
117.371000,1.286349
120.371000,1.218279
123.371000,1.154403
126.371000,1.086798
129.370000,1.019145
132.370000,0.959763
135.369000,0.883823
138.369000,0.821341
141.369000,0.747426
144.370000,0.681714
147.370000,0.612950
150.370000,0.544346
153.368000,0.476044
156.368000,0.405620
159.368000,0.337043
162.368000,0.267052
165.369000,0.195003
168.367000,0.126538
171.367000,0.054657
174.367000,-0.016256
177.367000,-0.086934
180.367000,-0.156606
183.368000,-0.226836
186.366000,-0.288771
189.366000,-0.364252
192.366000,-0.432197
195.366000,-0.493826
198.366000,-0.565612
201.364000,-0.632932
204.365000,-0.701571
207.365000,-0.770104
210.365000,-0.836046
213.365000,-0.905763
216.363000,-0.971913
219.363000,-1.039977
222.364000,-1.104396
225.364000,-1.166073
228.364000,-1.224799
231.364000,-1.280761
234.362000,-1.335981
237.362000,-1.388948
240.362000,-1.443360
243.363000,-1.500631
246.363000,-1.557347
249.361000,-1.620244
252.361000,-1.681635
255.361000,-1.743424
258.361000,-1.800392
261.362000,-1.853243
264.360000,-1.902311
267.360000,-1.946718
270.360000,-1.985523
273.360000,-2.025430
276.360000,-2.064904
279.358000,-2.102934
282.359000,-2.141861
285.359000,-2.182971
288.359000,-2.228279
291.359000,-2.274229
294.359000,-2.318065
297.357000,-2.358451
300.358000,-2.394570
303.358000,-2.428810
306.358000,-2.454965
309.358000,-2.478612
312.356000,-2.504301
315.356000,-2.525235
318.356000,-2.544690
321.357000,-2.565927
324.357000,-2.584056
327.357000,-2.600472
330.355000,-2.613373
333.355000,-2.630955
336.355000,-2.643084
339.356000,-2.655720
342.356000,-2.668645
345.354000,-2.679397
348.354000,-2.687430
351.354000,-2.692594
354.354000,-2.698740
357.354000,-2.705189
360.353000,-2.697972
363.353000,-2.692720
366.353000,-2.682059
369.353000,-2.679615
372.353000,-2.676018
375.351000,-2.668509
378.352000,-2.663597
381.352000,-2.654877
384.352000,-2.647878
387.352000,-2.637768
390.352000,-2.627420
393.350000,-2.610915
396.350000,-2.596417
399.351000,-2.580317
402.351000,-2.562728
405.351000,-2.552424
408.349000,-2.532531
411.349000,-2.515282
414.349000,-2.499637
417.350000,-2.475222
420.350000,-2.454578
423.348000,-2.432189
426.348000,-2.404745
429.348000,-2.375904
432.348000,-2.342055
435.348000,-2.305797
438.349000,-2.268579
441.347000,-2.229401
444.347000,-2.189454
447.347000,-2.149343
450.347000,-2.111500
453.347000,-2.075089
456.346000,-2.041478
459.346000,-2.009282
462.346000,-1.977259
465.346000,-1.942530
468.346000,-1.907825
471.344000,-1.872308
474.344000,-1.833023
477.345000,-1.791669
480.345000,-1.750403
483.345000,-1.699649
486.345000,-1.649707
489.343000,-1.601265
492.343000,-1.552724
495.344000,-1.504353
498.344000,-1.460405
501.344000,-1.418299
504.342000,-1.376398
507.342000,-1.334632
510.342000,-1.290364
513.342000,-1.253663
516.343000,-1.211357
519.341000,-1.169306
522.341000,-1.126949
525.341000,-1.081923
528.341000,-1.035527
531.341000,-0.986728
534.342000,-0.943218
537.340000,-0.893654
540.340000,-0.846796
543.340000,-0.801110
546.340000,-0.759956
549.340000,-0.716647
552.338000,-0.670486
555.339000,-0.629427
558.339000,-0.601562
561.338000,-0.568512
564.338000,-0.528861
567.338000,-0.493751
570.338000,-0.447627
573.339000,-0.391023
576.337000,-0.353411
579.337000,-0.316979
582.337000,-0.284236
585.337000,-0.267979
588.337000,-0.255911
591.335000,-0.187582
594.336000,-0.155060
597.336000,-0.124954
600.336000,-0.093621
603.336000,-0.064651
606.336000,-0.034732
609.334000,-0.005912
612.335000,0.021519
615.335000,0.045753
618.335000,0.069543
621.335000,0.101032
624.333000,0.107284
627.333000,0.133381
630.333000,0.169575
633.334000,0.187015
636.334000,0.203159
639.332000,0.226006
642.332000,0.241460
645.332000,0.258917
648.332000,0.270988
651.333000,0.275207
654.333000,0.296848
657.331000,0.308726
660.331000,0.314205
663.331000,0.321307
666.331000,0.335306
669.331000,0.321844
672.330000,0.348047
675.330000,0.353551
678.330000,0.339345
681.329000,0.348448
684.329000,0.339729
687.329000,0.361662
690.330000,0.345287
693.330000,0.333769
696.328000,0.331247
699.328000,0.321844
702.328000,0.312166
705.328000,0.306934
708.328000,0.321474
711.327000,0.291905
714.327000,0.279378
717.327000,0.267942
720.327000,0.256438
723.327000,0.242096
726.327000,0.228821
729.326000,0.213683
732.326000,0.196900
735.326000,0.183799
738.326000,0.162984
741.326000,0.142971
744.324000,0.124971
747.324000,0.101260
750.325000,0.078320
753.325000,0.055704
756.325000,0.031768
759.323000,0.010209
762.323000,-0.015688
765.323000,-0.041817
768.324000,-0.069407
771.324000,-0.097174
774.324000,-0.124097
777.322000,-0.150593
780.322000,-0.180029
783.322000,-0.207714
786.322000,-0.238384
789.323000,-0.267075
792.321000,-0.294373
795.321000,-0.331022
798.321000,-0.350583
801.320000,-0.395969
804.320000,-0.430212
807.321000,-0.459114
810.321000,-0.486555
813.321000,-0.522929
816.319000,-0.550461
819.319000,-0.594403
822.319000,-0.629587
825.319000,-0.664612
828.320000,-0.700129
831.318000,-0.735144
834.318000,-0.771950
837.319000,-0.806420
840.317000,-0.844593
843.317000,-0.880994
846.318000,-0.919231
849.318000,-0.957370
852.318000,-0.996005
855.316000,-1.032634
858.317000,-1.067138
861.317000,-1.104849
864.315000,-1.138221
867.316000,-1.173416
870.316000,-1.204980
873.316000,-1.239743
876.316000,-1.269797
879.314000,-1.300226
882.315000,-1.330053
885.316000,-1.362399
888.314000,-1.390862
891.314000,-1.419860
894.314000,-1.448843
897.314000,-1.478432
900.314000,-1.508385
903.312000,-1.540639
906.313000,-1.572081
909.313000,-1.605375
912.313000,-1.633744
915.313000,-1.666038
918.311000,-1.699030
921.311000,-1.727066
924.312000,-1.754911
927.312000,-1.783045
930.312000,-1.807252
933.312000,-1.831521
936.310000,-1.856116
939.310000,-1.874459
942.310000,-1.897426
945.310000,-1.914206
948.310000,-1.931322
951.310000,-1.947602
954.309000,-1.960823
957.309000,-1.978514
960.309000,-1.991656
963.310000,-2.006766
966.308000,-2.017964
969.308000,-2.026647
972.308000,-2.036349
975.308000,-2.048046
978.308000,-2.057626
981.308000,-2.058309
984.307000,-2.073053
987.307000,-2.078529
990.308000,-2.085362
993.306000,-2.093680
996.306000,-2.093779
999.306000,-2.091991
1002.306000,-2.102981
1005.306000,-2.107676
1008.306000,-2.107679
1011.306000,-2.104052
1014.306000,-2.084240
1017.304000,-2.094139
1020.304000,-2.107091
1023.305000,-2.080732
1026.305000,-2.086759
1029.305000,-2.093636
1032.303000,-2.062997
1035.303000,-2.065832
1038.303000,-2.057956
1041.304000,-2.048896
1044.304000,-2.041774
1047.302000,-2.028333
1050.302000,-2.025069
1053.302000,-2.010683
1056.302000,-2.003602
1059.301000,-1.989154
1062.302000,-1.977759
1065.302000,-1.967251
1068.302000,-1.950400
1071.300000,-1.943050
1074.300000,-1.927749
1077.300000,-1.908009
1080.301000,-1.898381
1083.301000,-1.882373
1086.299000,-1.863326
1089.299000,-1.843300
1092.300000,-1.821537
1095.298000,-1.798281
1098.298000,-1.778058
1101.299000,-1.757141
1104.298000,-1.732763
1107.298000,-1.704843
1110.298000,-1.676383
1113.298000,-1.649884
1116.298000,-1.624800
1119.296000,-1.598297
1122.297000,-1.571210
1125.297000,-1.539878
1128.297000,-1.513318
1131.297000,-1.488369
1134.297000,-1.461479
1137.295000,-1.438332
1140.296000,-1.411198
1143.296000,-1.384240
1146.295000,-1.360848
1149.295000,-1.332575
1152.295000,-1.306233
1155.295000,-1.283769
1158.293000,-1.256220
1161.294000,-1.232454
1164.294000,-1.204262
1167.294000,-1.180623
1170.294000,-1.152363
1173.294000,-1.127142
1176.292000,-1.098026
1179.293000,-1.070939
1182.293000,-1.041683
1185.293000,-1.014464
1188.293000,-0.983685
1191.291000,-0.955894
1194.291000,-0.926571
1197.291000,-0.895785
1200.292000,-0.872897
1203.291000,-0.839313
1206.291000,-0.814232
1209.291000,-0.787873
1212.291000,-0.760432
1215.289000,-0.733831
1218.290000,-0.710946
1221.290000,-0.683037
1224.290000,-0.660121
1227.290000,-0.638643
1230.290000,-0.613416
1233.288000,-0.603734
1236.288000,-0.589222
1239.289000,-0.567458
1242.289000,-0.545372
1245.289000,-0.523908
1248.287000,-0.510412
1251.287000,-0.490835
1254.287000,-0.470669
1257.288000,-0.439693
1260.288000,-0.405454
1263.286000,-0.391614
1266.286000,-0.378720
1269.286000,-0.374369
1272.286000,-0.357970
1275.286000,-0.323397
1278.285000,-0.309674
1281.285000,-0.308515
1284.285000,-0.293958
1287.285000,-0.273102
1290.285000,-0.260358
1293.285000,-0.269611
1296.284000,-0.262557
1299.284000,-0.248416
1302.284000,-0.218449
1305.284000,-0.208339
1308.284000,-0.204644
1311.282000,-0.195799
1314.282000,-0.183561
1317.283000,-0.205834
1320.283000,-0.179043
1323.283000,-0.173056
1326.281000,-0.184931
1329.281000,-0.158524
1332.281000,-0.176952
1335.282000,-0.166533
1338.282000,-0.162049
1341.282000,-0.166053
1344.280000,-0.169412
1347.280000,-0.162436
1350.281000,-0.174175
1353.279000,-0.162963
1356.280000,-0.153625
1359.280000,-0.161345
1362.280000,-0.185067
1365.280000,-0.187297
1368.278000,-0.193919
1371.278000,-0.176806
1374.279000,-0.195234
1377.279000,-0.210002
1380.279000,-0.194167
1383.278000,-0.222899
1386.278000,-0.231629
1389.278000,-0.242630
1392.276000,-0.245846
1395.278000,-0.262761
1398.276000,-0.261527
1401.276000,-0.281598
1404.276000,-0.293071
1407.276000,-0.303827
1410.276000,-0.312492
1413.277000,-0.327888
1416.275000,-0.340765
1419.275000,-0.351164
1422.275000,-0.372034
1425.274000,-0.381063
1428.274000,-0.380556
1431.274000,-0.416040
1434.275000,-0.429760
1437.274000,-0.446689
1440.274000,-0.463666
1443.274000,-0.461541
1446.272000,-0.492215
1449.272000,-0.508447
1452.273000,-0.532308
1455.273000,-0.547979
1458.273000,-0.553310
1461.273000,-0.590690
1464.271000,-0.606613
1467.271000,-0.629597
1470.271000,-0.647070
1473.272000,-0.667372
1476.272000,-0.686385
1479.270000,-0.706802
1482.270000,-0.726866
1485.270000,-0.750417
1488.270000,-0.771599
1491.271000,-0.790347
1494.269000,-0.808307
1497.269000,-0.832824
1500.269000,-0.855002
1503.269000,-0.876364
1506.269000,-0.896322
1509.267000,-0.920044
1512.268000,-0.943993
1515.268000,-0.961446
1518.268000,-0.986479
1521.268000,-1.007610
1524.268000,-1.029785
1527.266000,-1.047530
1530.267000,-1.068913
1533.267000,-1.089653
1536.267000,-1.112181
1539.267000,-1.128200
1542.265000,-1.149477
1545.265000,-1.168466
1548.265000,-1.187262
1551.266000,-1.204959
1554.266000,-1.222480
1557.266000,-1.240949
1560.264000,-1.255693
1563.264000,-1.273758
1566.264000,-1.288804
1569.265000,-1.301728
1572.265000,-1.320266
1575.263000,-1.334193
1578.263000,-1.349392
1581.263000,-1.362246
1584.263000,-1.375786
1587.263000,-1.388823
1590.262000,-1.407438
1593.262000,-1.417565
1596.262000,-1.431710
1599.262000,-1.442565
1602.262000,-1.454167
1605.260000,-1.463223
1608.261000,-1.473959
1611.261000,-1.486472
1614.261000,-1.496647
1617.261000,-1.508997
1620.261000,-1.521187
1623.259000,-1.531325
1626.259000,-1.540306
1629.260000,-1.549094
1632.260000,-1.557361
1635.260000,-1.563014
1638.258000,-1.574035
1641.258000,-1.580450
1644.258000,-1.579985
1647.259000,-1.591227
1650.259000,-1.591828
1653.259000,-1.603281
1656.257000,-1.603288
1659.257000,-1.608271
1662.257000,-1.612504
1665.257000,-1.618154
1668.258000,-1.612912
1671.256000,-1.617892
1674.256000,-1.618443
1677.256000,-1.602771
1680.256000,-1.611433
1683.256000,-1.617640
1686.255000,-1.600854
1689.255000,-1.591475
1692.255000,-1.600374
1695.255000,-1.583421
1698.255000,-1.602394
1701.255000,-1.590751
1704.253000,-1.578496
1707.255000,-1.579424
1710.253000,-1.560244
1713.253000,-1.555767
1716.253000,-1.552242
1719.253000,-1.545650
1722.253000,-1.533738
1725.252000,-1.529333
1728.252000,-1.536227
1731.252000,-1.507797
1734.252000,-1.502892
1737.252000,-1.486034
1740.252000,-1.480679
1743.250000,-1.467554
1746.251000,-1.454861
1749.251000,-1.445114
1752.251000,-1.440522
1755.251000,-1.421981
1758.249000,-1.412877
1761.249000,-1.402016
1764.250000,-1.386545
1767.250000,-1.374038
1770.250000,-1.363418
1773.250000,-1.347370
1776.248000,-1.333075
1779.248000,-1.321476
1782.248000,-1.306556
1785.249000,-1.290327
1788.249000,-1.282470
1791.247000,-1.267343
1794.247000,-1.252946
1797.247000,-1.236170
1800.247000,-1.223102
1803.248000,-1.218979
1806.246000,-1.193088
1809.246000,-1.175646
1812.246000,-1.157238
1815.246000,-1.139425
1818.246000,-1.125395
1821.244000,-1.109197
1824.245000,-1.096146
1827.245000,-1.076263
1830.245000,-1.053126
1833.245000,-1.040510
1836.245000,-1.017768
1839.243000,-1.006271
1842.244000,-0.984246
1845.244000,-0.966705
1848.244000,-0.951625
1851.244000,-0.931391
1854.242000,-0.913972
1857.242000,-0.894459
1860.242000,-0.878319
1863.243000,-0.860574
1866.243000,-0.841577
1869.241000,-0.822166
1872.241000,-0.805876
1875.241000,-0.791259
1878.241000,-0.772375
1881.242000,-0.762485
1884.242000,-0.741188
1887.240000,-0.725839
1890.240000,-0.711946
1893.240000,-0.697199
1896.240000,-0.678645
1899.240000,-0.668463
1902.239000,-0.651592
1905.239000,-0.640424
1908.239000,-0.642882
1911.239000,-0.613004
1914.239000,-0.600719
1917.237000,-0.589776
1920.238000,-0.588596
1923.238000,-0.585754
1926.238000,-0.576093
1929.238000,-0.546579
1932.238000,-0.532471
1935.236000,-0.534436
1938.236000,-0.506057
1941.237000,-0.499357
1944.237000,-0.503732
1947.237000,-0.497093
1950.235000,-0.489131
1953.235000,-0.474979
1956.235000,-0.468986
1959.236000,-0.458373
1962.236000,-0.435315
1965.234000,-0.446098
1968.234000,-0.423369
1971.234000,-0.414591
1974.234000,-0.434101
1977.234000,-0.404213
1980.235000,-0.422726
1983.233000,-0.392910
1986.233000,-0.411029
1989.233000,-0.387654
1992.233000,-0.384316
1995.233000,-0.381287
1998.232000,-0.403088
2001.232000,-0.382045
2004.232000,-0.382640
2007.232000,-0.373132
2010.232000,-0.393253
2013.232000,-0.384639
2016.230000,-0.394371
2019.231000,-0.394341
2022.231000,-0.394365
2025.230000,-0.395551
2028.230000,-0.388035
2031.230000,-0.397951
2034.230000,-0.404526
2037.229000,-0.405406
2040.229000,-0.403302
2043.229000,-0.411814
2046.229000,-0.399171
2049.229000,-0.424603
2052.229000,-0.425731
2055.227000,-0.431368
2058.228000,-0.435406
2061.228000,-0.441080
2064.228000,-0.448572
2067.228000,-0.452999
2070.226000,-0.455072
2073.226000,-0.464754
2076.227000,-0.469839
2079.227000,-0.475489
2082.227000,-0.476533
2085.225000,-0.488003
2088.225000,-0.493296
2091.225000,-0.507961
2094.225000,-0.523544
2097.226000,-0.536489
2100.226000,-0.545882
2103.224000,-0.548251
2106.224000,-0.562750
2109.224000,-0.571347
2112.224000,-0.581267
2115.225000,-0.596663
2118.223000,-0.606515
2121.223000,-0.620752
2124.223000,-0.629720
2127.223000,-0.641951
2130.223000,-0.651527
2133.223000,-0.661664
2136.222000,-0.674317
2139.222000,-0.684760
2142.222000,-0.689445
2145.222000,-0.712218
2148.222000,-0.722406
2151.220000,-0.734090
2154.221000,-0.747273
2157.221000,-0.760786
2160.221000,-0.773398
2163.221000,-0.778483
2166.219000,-0.795137
2169.219000,-0.807114
2172.219000,-0.821357
2175.220000,-0.836002
2178.220000,-0.844314
2181.218000,-0.860713
2184.218000,-0.873050
2187.218000,-0.885199
2190.218000,-0.894854
2193.219000,-0.910896
2196.219000,-0.922291
2199.217000,-0.935555
2202.217000,-0.947909
2205.217000,-0.959695
2208.217000,-0.971073
2211.217000,-0.985327
2214.216000,-0.990688
2217.216000,-1.005142
2220.216000,-1.017227
2223.216000,-1.012971
2226.216000,-1.040738
2229.214000,-1.047782
2232.215000,-1.060346
2235.215000,-1.067115
2238.215000,-1.080274
2241.215000,-1.088303
2244.215000,-1.100419
2247.213000,-1.108591
2250.213000,-1.119082
2253.214000,-1.127458
2256.214000,-1.132248
2259.214000,-1.135733
2262.212000,-1.148199
2265.212000,-1.157078
2268.212000,-1.163856
2271.213000,-1.164982
2274.213000,-1.169493
2277.211000,-1.174004
2280.211000,-1.188441
2283.211000,-1.188618
2286.211000,-1.193864
2289.211000,-1.201329
2292.212000,-1.202753
2295.210000,-1.202610
2298.210000,-1.200598
2301.210000,-1.212251
2304.210000,-1.218435
2307.210000,-1.222130
2310.209000,-1.222603
2313.209000,-1.206428
2316.209000,-1.230584
2319.209000,-1.229310
2322.209000,-1.230516
2325.207000,-1.224856
2328.207000,-1.232114
2331.208000,-1.217157
2334.208000,-1.226390
2337.208000,-1.231842
2340.207000,-1.218214
2343.207000,-1.237196
2346.207000,-1.231241
2349.206000,-1.218248
2352.206000,-1.215790
2355.206000,-1.229561
2358.206000,-1.208757
2361.205000,-1.220087
2364.205000,-1.219995
2367.205000,-1.196277
2370.205000,-1.194659
2373.205000,-1.200068
2376.205000,-1.194030
2379.205000,-1.183692
2382.203000,-1.201444
2385.203000,-1.182346
2388.204000,-1.189964
2391.204000,-1.186861
2394.204000,-1.160511
2397.203000,-1.161382
2400.203000,-1.157901
2403.203000,-1.164642
2406.201000,-1.142821
2409.202000,-1.138731
2412.202000,-1.137184
2415.202000,-1.147957
2418.202000,-1.126044
2421.200000,-1.123328
2424.200000,-1.107153
2427.200000,-1.106395
2430.201000,-1.114891
2433.201000,-1.085200
2436.201000,-1.095639
2439.199000,-1.069086
2442.199000,-1.061624
2445.199000,-1.075681
2448.200000,-1.046374
2451.200000,-1.038461
2454.198000,-1.033130
2457.198000,-1.022690
2460.198000,-1.013920
2463.198000,-1.028990
2466.198000,-1.002742
2469.197000,-0.997262
2472.197000,-0.973521
2475.197000,-0.973844
2478.197000,-0.957101
2481.197000,-0.959121
2484.197000,-0.943418
2487.196000,-0.936116
2490.196000,-0.929899
2493.196000,-0.919663
2496.196000,-0.905185
2499.196000,-0.902387
2502.195000,-0.885403
2505.195000,-0.892328
2508.196000,-0.874052
2511.194000,-0.860890
2514.194000,-0.851086
2517.194000,-0.840092
2520.194000,-0.832613
2523.194000,-0.825474
2526.193000,-0.814120
2529.193000,-0.804051
2532.193000,-0.818709
2535.193000,-0.793574
2538.193000,-0.786112
2541.191000,-0.776947
2544.191000,-0.766575
2547.192000,-0.757740
2550.192000,-0.756210
2553.192000,-0.746124
2556.192000,-0.737105
2559.190000,-0.729555
2562.190000,-0.745611
2565.191000,-0.715739
2568.191000,-0.711014
2571.191000,-0.721845
2574.189000,-0.693966
2577.189000,-0.713224
2580.189000,-0.685705
2583.189000,-0.691365
2586.190000,-0.678859
2589.188000,-0.675986
2592.188000,-0.670734
2595.188000,-0.651004
2598.188000,-0.660461
2601.188000,-0.651656
2604.187000,-0.655742
2607.187000,-0.639724
2610.187000,-0.647998
2613.187000,-0.632069
2616.187000,-0.619830
2619.187000,-0.642321
2622.185000,-0.614663
2625.186000,-0.615816
2628.186000,-0.598795
2631.186000,-0.623628
2634.186000,-0.603676
2637.184000,-0.599923
2640.184000,-0.596061
2643.185000,-0.612926
2646.185000,-0.608711
2649.185000,-0.588436
2652.185000,-0.598417
2655.183000,-0.599033
2658.183000,-0.583099
2661.183000,-0.588107
2664.184000,-0.591785
2667.184000,-0.579934
2670.182000,-0.583534
2673.182000,-0.606392
2676.182000,-0.608106
2679.182000,-0.608228
2682.183000,-0.599655
2685.181000,-0.588885
2688.181000,-0.605940
2691.181000,-0.613630
2694.181000,-0.587692
2697.181000,-0.612202
2700.181000,-0.620344
2703.180000,-0.605583
2706.180000,-0.606800
2709.180000,-0.623043
2712.180000,-0.629383
2715.180000,-0.632687
2718.178000,-0.636529
2721.179000,-0.637644
2724.179000,-0.640061
2727.179000,-0.639486
2730.179000,-0.649457
2733.177000,-0.643786
2736.177000,-0.652285
2739.177000,-0.658815
2742.178000,-0.667508
2745.178000,-0.670319
2748.178000,-0.661443
2751.176000,-0.671907
2754.176000,-0.687429
2757.176000,-0.687585
2760.177000,-0.671091
2763.177000,-0.690662
2766.175000,-0.707282
2769.175000,-0.711184
2772.175000,-0.716328
2775.175000,-0.720917
2778.175000,-0.724748
2781.174000,-0.731193
2784.174000,-0.734049
2787.174000,-0.745743
2790.174000,-0.754204
2793.174000,-0.755149
2796.174000,-0.742891
2799.173000,-0.757315
2802.173000,-0.776376
2805.173000,-0.757866
2808.173000,-0.788614
2811.173000,-0.793642
2814.171000,-0.793890
2817.171000,-0.802694
2820.171000,-0.806525
2823.171000,-0.813093
2826.171000,-0.814664
2829.171000,-0.822061
2832.171000,-0.839901
2835.171000,-0.838732
2838.170000,-0.837420
2841.170000,-0.849427
2844.170000,-0.864554
2847.170000,-0.865081
2850.170000,-0.873916
2853.168000,-0.881762
2856.168000,-0.887025
2859.169000,-0.881745
2862.169000,-0.899025
2865.169000,-0.903495
2868.167000,-0.914095
2871.167000,-0.916019
2874.167000,-0.923671
2877.168000,-0.925524
2880.168000,-0.937021
2883.168000,-0.942201
2886.166000,-0.942045
2889.166000,-0.949218
2892.166000,-0.954728
2895.166000,-0.960558
2898.167000,-0.964159
2901.165000,-0.972480
2904.165000,-0.979932
2907.165000,-0.985109
2910.165000,-0.959270
2913.165000,-0.987214
2916.166000,-0.996181
2919.164000,-0.997541
2922.165000,-1.005329
2925.163000,-1.005962
2928.163000,-1.014365
2931.163000,-1.021759
2934.163000,-1.023992
2937.164000,-1.024193
2940.164000,-1.029748
2943.162000,-1.026726
2946.162000,-1.033188
2949.162000,-1.039042
2952.162000,-1.041503
2955.163000,-1.046986
2958.161000,-1.047129
2961.161000,-1.046575
2964.161000,-1.049145
2967.161000,-1.047044
2970.161000,-1.047551
2973.159000,-1.056920
2976.160000,-1.056206
2979.160000,-1.041020
2982.160000,-1.054475
2985.160000,-1.050304
2988.158000,-1.042683
2991.158000,-1.064290
2994.159000,-1.065493
2997.159000,-1.062209
3000.159000,-1.043288
3003.159000,-1.059962
3006.157000,-1.045477
3009.157000,-1.053405
3012.157000,-1.043594
3015.158000,-1.032960
3018.158000,-1.035272
3021.156000,-1.035445
3024.156000,-1.049825
3027.156000,-1.026579
3030.156000,-1.048227
3033.157000,-1.025804
3036.155000,-1.020957
3039.155000,-1.041367
3042.155000,-1.021541
3045.154000,-1.037648
3048.154000,-1.020161
3051.154000,-1.010830
3054.155000,-1.024988
3057.155000,-0.996538
3060.153000,-1.015433
3063.153000,-1.001359
3066.153000,-0.983743
3069.153000,-0.981118
3072.154000,-0.983583
3075.154000,-0.970985
3078.152000,-0.967952
3081.152000,-0.963910
3084.152000,-0.958094
3087.152000,-0.957288
3090.152000,-0.946529
3093.151000,-0.941681
3096.151000,-0.945587
3099.151000,-0.943680
3102.151000,-0.924259
3105.151000,-0.915567
3108.149000,-0.915468
3111.150000,-0.908537
3114.150000,-0.907078
3117.150000,-0.903366
3120.150000,-0.894932
3123.150000,-0.893796
3126.148000,-0.892148
3129.148000,-0.886634
3132.149000,-0.884499
3135.149000,-0.876497
3138.149000,-0.850596
3141.147000,-0.855590
3144.147000,-0.834887
3147.147000,-0.834642
3150.148000,-0.823043
3153.148000,-0.820677
3156.146000,-0.811016
3159.146000,-0.803425
3162.146000,-0.798210
3165.146000,-0.796562
3168.146000,-0.799475
3171.145000,-0.781669
3174.146000,-0.779258
3177.146000,-0.775298
3180.144000,-0.763934
3183.144000,-0.776291
3186.144000,-0.748153
3189.145000,-0.745978
3192.145000,-0.732652
3195.145000,-0.751787
3198.143000,-0.735252
3201.143000,-0.737554
3204.143000,-0.720747
3207.143000,-0.713819
3210.143000,-0.709304
3213.143000,-0.712649
3216.143000,-0.689438
3219.143000,-0.706258
3222.141000,-0.681602
3225.141000,-0.675333
3228.142000,-0.688663
3231.142000,-0.669167
3234.142000,-0.658934
3237.140000,-0.679596
3240.140000,-0.654066
3243.140000,-0.645629
3246.140000,-0.645486
3249.141000,-0.652306
3252.139000,-0.652207
3255.139000,-0.628917
3258.139000,-0.625888
3261.139000,-0.643501
3264.139000,-0.617770
3267.140000,-0.633931
3270.138000,-0.622336
3273.138000,-0.622880
3276.138000,-0.624454
3279.138000,-0.602095
3282.138000,-0.617260
3285.136000,-0.619392
3288.137000,-0.604343
3291.137000,-0.607813
3294.137000,-0.608167
3297.137000,-0.614167
3300.135000,-0.590612
3303.135000,-0.602432
3306.136000,-0.609741
3309.136000,-0.591183
3312.136000,-0.593247
3315.136000,-0.608218
3318.134000,-0.599182
3321.134000,-0.583048
3324.134000,-0.581699
3327.135000,-0.591047
3330.135000,-0.593410
3333.133000,-0.597945
3336.133000,-0.604961
3339.133000,-0.598220
3342.133000,-0.608979
3345.134000,-0.610886
3348.133000,-0.593090
3351.133000,-0.587794
3354.133000,-0.598907
3357.131000,-0.620476
3360.131000,-0.620351
3363.131000,-0.621649
3366.132000,-0.628941
3369.132000,-0.630631
3372.130000,-0.607841
3375.130000,-0.632405
3378.130000,-0.639122
3381.130000,-0.642053
3384.130000,-0.637141
3387.130000,-0.647934
3390.130000,-0.646486
3393.130000,-0.640805
3396.128000,-0.665159
3399.128000,-0.658775
3402.128000,-0.669534
3405.129000,-0.670601
3408.129000,-0.665594
3411.127000,-0.680368
3414.128000,-0.688251
3417.128000,-0.683394
3420.126000,-0.689873
3423.127000,-0.698865
3426.127000,-0.698746
3429.127000,-0.702607
3432.127000,-0.716402
3435.127000,-0.721583
3438.125000,-0.723062
3441.125000,-0.730762
3444.126000,-0.731384
3447.126000,-0.742714
3450.125000,-0.748622
3453.125000,-0.756628
3456.125000,-0.759963
3459.125000,-0.762815
3462.124000,-0.768105
3465.124000,-0.771477
3468.123000,-0.781869
3471.123000,-0.783470
3474.123000,-0.790514
3477.123000,-0.794910
3480.123000,-0.802300
3483.124000,-0.806757
3486.122000,-0.807501
3489.122000,-0.819192
3492.122000,-0.824192
3495.122000,-0.832854
3498.122000,-0.836002
3501.121000,-0.823149
3504.121000,-0.842509
3507.121000,-0.848363
3510.121000,-0.856977
3513.121000,-0.863381
3516.119000,-0.868389
3519.119000,-0.873791
3522.120000,-0.879553
3525.120000,-0.882830
3528.120000,-0.886678
3531.118000,-0.884434
3534.118000,-0.896747
3537.118000,-0.903118
3540.119000,-0.912014
3543.119000,-0.910811
3546.119000,-0.917447
3549.117000,-0.924103
3552.117000,-0.923742
3555.117000,-0.928039
3558.117000,-0.919452
3561.118000,-0.912864
3564.116000,-0.939060
3567.116000,-0.943265
3570.116000,-0.946002
3573.116000,-0.939812
3576.116000,-0.949541
3579.117000,-0.945968
3582.115000,-0.954514
3585.115000,-0.956666
3588.115000,-0.948596
3591.115000,-0.958155
3594.115000,-0.953345
3597.113000,-0.942354
3600.114000,-0.958033
3603.115000,-0.939720
3606.113000,-0.961116
3609.113000,-0.959484
3612.113000,-0.947148
3615.113000,-0.968469
3618.114000,-0.966902
3621.112000,-0.965447
3624.112000,-0.965331
3627.112000,-0.956394
3630.112000,-0.945356
3633.112000,-0.954504
3636.110000,-0.969873
3639.111000,-0.954541
3642.111000,-0.946325
3645.111000,-0.948851
3648.111000,-0.941382
3651.109000,-0.946529
3654.109000,-0.965447
3657.110000,-0.950873
3660.110000,-0.942681
3663.110000,-0.954871
3666.110000,-0.926924
3669.108000,-0.943636
3672.108000,-0.933057
3675.108000,-0.946760
3678.109000,-0.942970
3681.109000,-0.931262
3684.107000,-0.917066
3687.107000,-0.921611
3690.107000,-0.924415
3693.107000,-0.906932
3696.107000,-0.925520
3699.108000,-0.894993
3702.106000,-0.915356
3705.106000,-0.895969
3708.106000,-0.892889
3711.106000,-0.884502
3714.106000,-0.899480
3717.105000,-0.877754
3720.105000,-0.873240
3723.105000,-0.875868
3726.104000,-0.858874
3729.104000,-0.877428
3732.104000,-0.879485
3735.104000,-0.856814
3738.105000,-0.863555
3741.103000,-0.849913
3744.103000,-0.855532
3747.103000,-0.843087
3750.103000,-0.835836
3753.103000,-0.834197
3756.102000,-0.820028
3759.102000,-0.828537
3762.102000,-0.822972
3765.102000,-0.806777
3768.102000,-0.805438
3771.100000,-0.795878
3774.100000,-0.790116
3777.101000,-0.804975
3780.101000,-0.782488
3783.101000,-0.779071
3786.101000,-0.789613
3789.099000,-0.774560
3792.099000,-0.774826
3795.100000,-0.775298
3798.100000,-0.756785
3801.100000,-0.764121
3804.098000,-0.743938
3807.098000,-0.755177
3810.098000,-0.732516
3813.098000,-0.725584
3816.099000,-0.739981
3819.099000,-0.712711
3822.097000,-0.730303
3825.097000,-0.708839
3828.096000,-0.721481
3831.096000,-0.690247
3834.097000,-0.688143
3837.097000,-0.688615
3840.097000,-0.691780
3843.095000,-0.672427
3846.095000,-0.670605
3849.096000,-0.669075
3852.094000,-0.662130
3855.095000,-0.681527
3858.095000,-0.650239
3861.095000,-0.645483
3864.095000,-0.668592
3867.093000,-0.642940
3870.093000,-0.653621
3873.094000,-0.639887
3876.094000,-0.632660
3879.093000,-0.628774
3882.093000,-0.644912
3885.093000,-0.618692
3888.093000,-0.635920
3891.091000,-0.623155
3894.092000,-0.613698
3897.092000,-0.605026
3900.092000,-0.614718
3903.092000,-0.605553
3906.092000,-0.616485
3909.090000,-0.594906
3912.091000,-0.613038
3915.091000,-0.581525
3918.091000,-0.576875
3921.091000,-0.592808
3924.089000,-0.600185
3927.089000,-0.593060
3930.089000,-0.595959
3933.090000,-0.586288
3936.090000,-0.589477
3939.090000,-0.598312
3942.088000,-0.597367
3945.088000,-0.582916
3948.088000,-0.585452
3951.089000,-0.579125
3954.089000,-0.585149
3957.087000,-0.582215
3960.087000,-0.581740
3963.087000,-0.572245
3966.087000,-0.582501
3969.087000,-0.578347
3972.087000,-0.579690
3975.087000,-0.573645
3978.087000,-0.582341
3981.085000,-0.584388
3984.085000,-0.587961
3987.085000,-0.577028
3990.086000,-0.588280
3993.086000,-0.578911
3996.084000,-0.580726
3999.084000,-0.579509
4002.084000,-0.583171
4005.084000,-0.596208
4008.084000,-0.576450
4011.083000,-0.582685
4014.083000,-0.574019
4017.083000,-0.566870
4020.083000,-0.597333
4023.083000,-0.598319
4026.083000,-0.599848
4029.082000,-0.579768
4032.082000,-0.574427
4035.081000,-0.603255
4038.081000,-0.615619
4041.081000,-0.618593
4044.081000,-0.619191
4047.081000,-0.612199
4050.082000,-0.621806
4053.080000,-0.602765
4056.080000,-0.631637
4059.080000,-0.629767
4062.080000,-0.639054
4065.079000,-0.638830
4068.080000,-0.633510
4071.080000,-0.619671
4074.079000,-0.648318
4077.079000,-0.650086
4080.079000,-0.648026
4083.077000,-0.650092
4086.077000,-0.648668
4089.078000,-0.661097
4092.078000,-0.665706
4095.077000,-0.664962
4098.077000,-0.666373
4101.077000,-0.676676
4104.077000,-0.682867
4107.076000,-0.681524
4110.076000,-0.664224
4113.077000,-0.674235
4116.075000,-0.684862
4119.075000,-0.693211
4122.075000,-0.703767
4125.075000,-0.707424
4128.076000,-0.710375
4131.074000,-0.716066
4134.074000,-0.711738
4137.074000,-0.721994
4140.074000,-0.719282
4143.074000,-0.728185
4146.075000,-0.715743
4149.073000,-0.738043
4152.073000,-0.732696
4155.073000,-0.733808
4158.073000,-0.747572
4161.073000,-0.751196
4164.071000,-0.753813
4167.072000,-0.761432
4170.072000,-0.759280
4173.072000,-0.763271
4176.072000,-0.770410
4179.070000,-0.773095
4182.070000,-0.773656
4185.071000,-0.754677
4188.071000,-0.779850
4191.071000,-0.775941
4194.071000,-0.783392
4197.069000,-0.789093
4200.069000,-0.795144
4203.069000,-0.784099
4206.070000,-0.790779
4209.070000,-0.800199
4212.068000,-0.801083
4215.068000,-0.802616
4218.068000,-0.808004
4221.067000,-0.792628
4224.068000,-0.793788
4227.068000,-0.821300
4230.068000,-0.809687
4233.068000,-0.799601
4236.066000,-0.821300
4239.066000,-0.824753
4242.066000,-0.821966
4245.067000,-0.807423
4248.067000,-0.833317
4251.065000,-0.832538
4254.065000,-0.836974
4257.065000,-0.832875
4260.065000,-0.839867
4263.066000,-0.824587
4266.066000,-0.836767
4269.064000,-0.824328
4272.064000,-0.841207
4275.064000,-0.832875
4278.064000,-0.833833
4281.064000,-0.846231
4284.063000,-0.825950
4287.063000,-0.841424
4290.063000,-0.844151
4293.063000,-0.841112
4296.063000,-0.842859
4299.061000,-0.846476
4302.062000,-0.858160
4305.062000,-0.852442
4308.062000,-0.845786
4311.062000,-0.835931
4314.060000,-0.851511
4317.060000,-0.837797
4320.060000,-0.850538
4323.061000,-0.848101
4326.061000,-0.832225
4329.061000,-0.851279
4332.059000,-0.845612
4335.059000,-0.841836
4338.059000,-0.832324
4341.060000,-0.836050
4344.060000,-0.846561
4347.058000,-0.846853
4350.058000,-0.827979
4353.058000,-0.831311
4356.058000,-0.843974
4359.058000,-0.847469
4362.059000,-0.828241
4365.057000,-0.828826
4368.057000,-0.822979
4371.057000,-0.834738
4374.057000,-0.819617
4377.057000,-0.836584
4380.056000,-0.813923
4383.056000,-0.841108
4386.056000,-0.830679
4389.056000,-0.806491
4392.056000,-0.807481
4395.054000,-0.828047
4398.054000,-0.811309
4401.055000,-0.814062
4404.055000,-0.811285
4407.055000,-0.798741
4410.053000,-0.801049
4413.053000,-0.794621
4416.053000,-0.810452
4419.054000,-0.790823
4422.054000,-0.796174
4425.054000,-0.800998
4428.053000,-0.778691
4431.053000,-0.781295
4434.051000,-0.784990
4437.051000,-0.782597
4440.052000,-0.782315
4443.052000,-0.762302
4446.052000,-0.772857
4449.052000,-0.762305
4452.051000,-0.754232
4455.051000,-0.764437
4458.050000,-0.759688
4461.050000,-0.739644
4464.050000,-0.754684
4467.050000,-0.749768
4470.050000,-0.732625
4473.050000,-0.730014
4476.048000,-0.748208
4479.049000,-0.730762
4482.049000,-0.730313
4485.049000,-0.727338
4488.049000,-0.721444
4491.048000,-0.711755
4494.048000,-0.710783
4497.049000,-0.728640
4500.047000,-0.706626
4503.048000,-0.714818
4506.048000,-0.706323
4509.046000,-0.715502
4512.046000,-0.703134
4515.046000,-0.690220
4518.047000,-0.686528
4521.047000,-0.702502
4524.045000,-0.690723
4527.045000,-0.686212
4530.044000,-0.677455
4533.044000,-0.669721
4536.045000,-0.675796
4539.045000,-0.694404
4542.045000,-0.670819
4545.045000,-0.675962
4548.043000,-0.684577
4551.043000,-0.660427
4554.043000,-0.659482
4557.044000,-0.679831
4560.043000,-0.655511
4563.043000,-0.668072
4566.043000,-0.662371
4569.043000,-0.653808
4572.041000,-0.659869
4575.042000,-0.650184
4578.042000,-0.664057
4581.042000,-0.639401
4584.042000,-0.651792
4587.040000,-0.659098
4590.040000,-0.639418
4593.040000,-0.631130
4596.041000,-0.654066
4599.041000,-0.641087
4602.041000,-0.641471
4605.039000,-0.640707
4608.039000,-0.626119
4611.039000,-0.647237
4614.040000,-0.638541
4617.040000,-0.632103
4620.038000,-0.634115
4623.038000,-0.634921
4626.038000,-0.641257
4629.038000,-0.626198
4632.038000,-0.649304
4635.037000,-0.649202
4638.037000,-0.649249
4641.037000,-0.629944
4644.037000,-0.626850
4647.037000,-0.631154
4650.035000,-0.640271
4653.036000,-0.654576
4656.036000,-0.651483
4659.036000,-0.658863
4662.036000,-0.642603
4665.036000,-0.647992
4668.034000,-0.668762
4671.034000,-0.663901
4674.035000,-0.660957
4677.035000,-0.668915
4680.035000,-0.646309
4683.033000,-0.644664
4686.033000,-0.670867
4689.033000,-0.671448
4692.033000,-0.680259
4695.033000,-0.665094
4698.033000,-0.683033
4701.032000,-0.689747
4704.032000,-0.666573
4707.032000,-0.691559
4710.032000,-0.681558
4713.033000,-0.675306
4716.031000,-0.697019
4719.031000,-0.702597
4722.031000,-0.698885
4725.031000,-0.703216
4728.031000,-0.710389
4731.030000,-0.714805
4734.030000,-0.716742
4737.031000,-0.709406
4740.029000,-0.697675
4743.029000,-0.720890
4746.029000,-0.720893
4749.029000,-0.726030
4752.030000,-0.715114
4755.028000,-0.734219
4758.028000,-0.727723
4761.028000,-0.739481
4764.028000,-0.742837
4767.028000,-0.743452
4770.027000,-0.743792
4773.027000,-0.749598
4776.027000,-0.754123
4779.027000,-0.733995
4782.027000,-0.759773
4785.027000,-0.761387
4788.025000,-0.762139
4791.027000,-0.769665
4794.025000,-0.772313
4797.025000,-0.772436
4800.025000,-0.761493
4803.025000,-0.770083
4806.025000,-0.779034
4809.026000,-0.781951
4812.024000,-0.780795
4815.024000,-0.788566
4818.024000,-0.784932
4821.024000,-0.790511
4824.024000,-0.787247
4827.022000,-0.794247
4830.023000,-0.798149
4833.023000,-0.798421
4836.023000,-0.782535
4839.023000,-0.796065
4842.021000,-0.802671
4845.021000,-0.804357
4848.022000,-0.806658
4851.022000,-0.796993
4854.022000,-0.804741
4857.022000,-0.806906
4860.020000,-0.810435
4863.020000,-0.795022
4866.020000,-0.811931
4869.021000,-0.805900
4872.021000,-0.799920
4875.019000,-0.814956
4878.019000,-0.808358
4881.019000,-0.823339
4884.019000,-0.822622
4887.020000,-0.831862
4890.018000,-0.816462
4893.018000,-0.806539
4896.018000,-0.824570
4899.018000,-0.808684
4902.018000,-0.823893
4905.018000,-0.818223
4908.017000,-0.804714
4911.017000,-0.829570
4914.017000,-0.832854
4917.017000,-0.818376
4920.017000,-0.811336
4923.015000,-0.830223
4926.016000,-0.813916
4929.016000,-0.804516
4932.016000,-0.827861
4935.016000,-0.825280
4938.016000,-0.805128
4941.014000,-0.824393
4944.014000,-0.805594
4947.015000,-0.815721
4950.015000,-0.811179
4953.015000,-0.815826
4956.013000,-0.810194
4959.013000,-0.800740
4962.013000,-0.819205
4965.013000,-0.798251
4968.014000,-0.790048
4971.012000,-0.808766
4974.012000,-0.800427
4977.012000,-0.786962
4980.012000,-0.789688
4983.012000,-0.808467
4986.011000,-0.791330
4989.011000,-0.787247
4992.011000,-0.797867
4995.011000,-0.779806
4998.011000,-0.795685
5001.011000,-0.790769
5004.009000,-0.782641
5007.010000,-0.783083
5010.010000,-0.783851
5013.010000,-0.786860
5016.010000,-0.768951
5019.008000,-0.787186
5022.008000,-0.760854
5025.009000,-0.758726
5028.009000,-0.776097
5031.009000,-0.758610
5034.007000,-0.777725
5037.007000,-0.773833
5040.007000,-0.750591
5043.007000,-0.766725
5046.008000,-0.745271
5049.008000,-0.752121
5052.006000,-0.754745
5055.006000,-0.748731
5058.006000,-0.739046
5061.006000,-0.755666
5064.007000,-0.733780
5067.005000,-0.740148
5070.005000,-0.736459
5073.005000,-0.744547
5076.005000,-0.722518
5079.005000,-0.739937
5082.004000,-0.713642
5085.004000,-0.710300
5088.004000,-0.719758
5091.004000,-0.726781
5094.004000,-0.712160
5097.004000,-0.713003
5100.002000,-0.722698
5103.003000,-0.698545
5106.003000,-0.700809
5109.003000,-0.691681
5112.003000,-0.692718
5115.001000,-0.689479
5118.001000,-0.709896
5121.001000,-0.688744
5124.002000,-0.701659
5127.002000,-0.674480
5130.000000,-0.698229
5133.000000,-0.686059
5136.000000,-0.668167
5139.000000,-0.666311
5142.001000,-0.685511
5145.001000,-0.664479
5147.999000,-0.682530
5150.999000,-0.660808
5153.999000,-0.671288
5156.999000,-0.679610
5159.999000,-0.657598
5162.998000,-0.673250
5165.998000,-0.645921
5168.998000,-0.665791
5171.998000,-0.651065
5174.998000,-0.652323
5177.996000,-0.666862
5180.997000,-0.651697
5183.997000,-0.662725
5186.997000,-0.648206
5189.997000,-0.662099
5192.995000,-0.639938
5195.995000,-0.638113
5198.995000,-0.656361
5201.996000,-0.631667
5204.996000,-0.637752
5207.996000,-0.636124
5210.994000,-0.651993
5213.994000,-0.634710
5216.994000,-0.639119
5219.995000,-0.637746
5222.995000,-0.630661
5225.993000,-0.655266
5228.993000,-0.639772
5231.993000,-0.646720
5234.993000,-0.653387
5237.993000,-0.637565
5240.994000,-0.648610
5243.992000,-0.658887
5246.992000,-0.651513
5249.992000,-0.657313
5252.992000,-0.655545
5255.992000,-0.634061
5258.991000,-0.641247
5261.991000,-0.662983
5264.991000,-0.667107
5267.991000,-0.667379
5270.991000,-0.659176
5273.989000,-0.663364
5276.989000,-0.669677
5279.990000,-0.660063
5282.990000,-0.644395
5285.990000,-0.664795
5288.988000,-0.675599
5291.988000,-0.656286
5294.988000,-0.678821
5297.989000,-0.670176
5300.989000,-0.673899
5303.989000,-0.683897
5306.987000,-0.676996
5309.987000,-0.689339
5312.987000,-0.688510
5315.987000,-0.698623
5318.988000,-0.699480
5321.986000,-0.696420
5324.986000,-0.690906
5327.986000,-0.706320
5330.986000,-0.714009
5333.986000,-0.712772
5336.987000,-0.715355
5339.985000,-0.720166
5342.985000,-0.721128
5345.985000,-0.726920
5348.985000,-0.721464
5351.985000,-0.707645
5354.983000,-0.732305
5357.984000,-0.735698
5360.984000,-0.734773
5363.984000,-0.727665
5366.984000,-0.742748
5369.982000,-0.745719
5372.982000,-0.752467
5375.983000,-0.753161
5378.983000,-0.735885
5381.983000,-0.749241
5384.983000,-0.755027
5387.982000,-0.758868
5390.982000,-0.758576
5393.980000,-0.758280
5396.981000,-0.766643
5399.981000,-0.770430
5402.981000,-0.769227
5405.981000,-0.779167
5408.979000,-0.778324
5411.979000,-0.781267
5414.980000,-0.782175
5417.979000,-0.786863
5420.979000,-0.785853
5423.979000,-0.780050
5426.979000,-0.791595
5429.979000,-0.789804
5432.977000,-0.793074
5435.978000,-0.785850
5438.978000,-0.794114
5441.978000,-0.794158
5444.978000,-0.798911
5447.978000,-0.801566
5450.976000,-0.802742
5453.977000,-0.801681
5456.977000,-0.787002
5459.977000,-0.805669
5462.977000,-0.802738
5465.975000,-0.808681
5468.975000,-0.799030
5471.975000,-0.791588
5474.976000,-0.810982
5477.976000,-0.817852
5480.976000,-0.819525
5483.974000,-0.797089
5486.974000,-0.817332
5489.974000,-0.809106
5492.975000,-0.796161
5495.975000,-0.804353
5498.973000,-0.819559
5501.973000,-0.813256
5504.973000,-0.814130
5507.973000,-0.824403
5510.973000,-0.814779
5513.972000,-0.814011
5516.972000,-0.806736
5519.972000,-0.802157
5522.972000,-0.813998
5525.971000,-0.823798
5528.970000,-0.824383
5531.971000,-0.829315
5534.971000,-0.818903
5537.971000,-0.809231
5540.971000,-0.809327
5543.971000,-0.820062
5546.969000,-0.802963
5549.969000,-0.824859
5552.970000,-0.806974
5555.970000,-0.799985
5558.970000,-0.802004
5561.968000,-0.802280
5564.968000,-0.802263
5567.968000,-0.795402
5570.969000,-0.812995
5573.969000,-0.797717
5576.967000,-0.809639
5579.967000,-0.809017
5582.967000,-0.796011
5585.967000,-0.794128
5588.967000,-0.801202
5591.967000,-0.805757
5594.967000,-0.800665
5597.967000,-0.810574
5600.965000,-0.793074
5603.965000,-0.810064
5606.965000,-0.806689
5609.966000,-0.785425
5612.966000,-0.789253
5615.966000,-0.800434
5618.964000,-0.801012
5621.964000,-0.802212
5624.964000,-0.786105
5627.964000,-0.786618
5630.965000,-0.793659
5633.963000,-0.781788
5636.963000,-0.798697
5639.963000,-0.777209
5642.963000,-0.779303
5645.963000,-0.769434
5648.962000,-0.783736
5651.962000,-0.784113
5654.962000,-0.789311
5657.962000,-0.768108
5660.962000,-0.786543
5663.962000,-0.764474
5666.960000,-0.762037
5669.961000,-0.759868
5672.961000,-0.778137
5675.961000,-0.757872
5678.960000,-0.772769
5681.960000,-0.759385
5684.959000,-0.758957
5687.960000,-0.769563
5690.960000,-0.765093
5693.960000,-0.743330
5696.958000,-0.752331
5699.958000,-0.742034
5702.958000,-0.730751
5705.958000,-0.734865
5708.959000,-0.747810
5711.958000,-0.740624
5714.958000,-0.751781
5717.958000,-0.727862
5720.958000,-0.745165
5723.956000,-0.740885
5726.957000,-0.721746
5729.957000,-0.724157
5732.957000,-0.740090
5735.957000,-0.721128
5738.955000,-0.735252
5741.955000,-0.720427
5744.955000,-0.712010
5747.956000,-0.714716
5750.956000,-0.726710
5753.954000,-0.712615
5756.955000,-0.720924
5759.955000,-0.709529
5762.953000,-0.728124
5765.954000,-0.707693
5768.954000,-0.713996
5771.954000,-0.715243
5774.954000,-0.694942
5777.952000,-0.695754
5780.952000,-0.705993
5783.952000,-0.717963
5786.953000,-0.698253
5789.953000,-0.702757
5792.951000,-0.703675
5795.951000,-0.687609
5798.951000,-0.686096
5801.951000,-0.695115
5804.952000,-0.706517
5807.952000,-0.683577
5810.950000,-0.703991
5813.950000,-0.692868
5816.950000,-0.690855
5819.950000,-0.696237
5822.950000,-0.675871
5825.949000,-0.699106
5828.949000,-0.693272
5831.949000,-0.675330
5834.949000,-0.694343
5837.949000,-0.684930
5840.947000,-0.667759
5843.948000,-0.689149
5846.948000,-0.669796
5849.948000,-0.680660
5852.948000,-0.671264
5855.948000,-0.684672
5858.946000,-0.667137
5861.946000,-0.688880
5864.947000,-0.687252
5867.947000,-0.685046
5870.947000,-0.676737
5873.945000,-0.667375
5876.945000,-0.669415
5879.945000,-0.668460
5882.946000,-0.675939
5885.946000,-0.687640
5888.944000,-0.666553
5891.944000,-0.680613
5894.944000,-0.685865
5897.944000,-0.689451
5900.944000,-0.687551
5903.945000,-0.690203
5906.944000,-0.676146
5909.944000,-0.676010
5912.942000,-0.682921
5915.942000,-0.665815
5918.942000,-0.680021
5921.943000,-0.690968
5924.943000,-0.673100
5927.943000,-0.685216
5930.942000,-0.680371
5933.942000,-0.678189
5936.940000,-0.686066
5939.940000,-0.698650
5942.942000,-0.696787
5945.940000,-0.696801
5948.940000,-0.681266
5951.940000,-0.696080
5954.940000,-0.678342
5957.940000,-0.680922
5960.941000,-0.704786
5963.939000,-0.707965
5966.939000,-0.690284
5969.939000,-0.704151
5972.939000,-0.697223
5975.937000,-0.708886
5978.937000,-0.707241
5981.938000,-0.696706
5984.938000,-0.718252
5987.938000,-0.704032
5990.938000,-0.708747
5993.936000,-0.721029
5996.936000,-0.723412
5999.937000,-0.722919
6002.937000,-0.721124
6005.937000,-0.730887
6008.935000,-0.732621
6011.935000,-0.721498
6014.935000,-0.731523
6017.935000,-0.741830
6020.936000,-0.722705
6023.936000,-0.712857
6026.934000,-0.734311
6029.934000,-0.748034
6032.934000,-0.751373
6035.934000,-0.742004
6038.935000,-0.752066
6041.935000,-0.743591
6044.933000,-0.724904
6047.933000,-0.738111
6050.932000,-0.758722
6053.932000,-0.760932
6056.932000,-0.741371
6059.933000,-0.743513
6062.933000,-0.759416
6065.931000,-0.736694
6068.931000,-0.758607
6071.931000,-0.761340
6074.931000,-0.764253
6077.932000,-0.761870
6080.930000,-0.756536
6083.931000,-0.761462
6086.931000,-0.757529
6089.929000,-0.757709
6092.929000,-0.761496
6095.929000,-0.769441
6098.930000,-0.753205
6101.930000,-0.757121
6104.928000,-0.766514
6107.928000,-0.746508
6110.929000,-0.766582
6113.927000,-0.765355
6116.928000,-0.755398
6119.928000,-0.741681
6122.928000,-0.763692
6125.928000,-0.767218
6128.926000,-0.766062
6131.926000,-0.748956
6134.926000,-0.765399
6137.927000,-0.754949
6140.927000,-0.752403
6143.927000,-0.748218
6146.925000,-0.734056
6149.925000,-0.758892
6152.925000,-0.760840
6155.926000,-0.739961
6158.926000,-0.741718
6161.924000,-0.752212
6164.924000,-0.738533
6167.924000,-0.755476
6170.924000,-0.729405
6173.924000,-0.745967
6176.923000,-0.741643
6179.924000,-0.733131
6182.924000,-0.746049
6185.922000,-0.724177
6188.922000,-0.744200
6191.922000,-0.721940
6194.922000,-0.737877
6197.923000,-0.720448
6200.921000,-0.720016
6203.921000,-0.736452
6206.921000,-0.717082
6209.921000,-0.710834
6212.921000,-0.720087
6215.920000,-0.720720
6218.920000,-0.712646
6221.921000,-0.713771
6224.919000,-0.717228
6227.919000,-0.704181
6230.919000,-0.715824
6233.919000,-0.691834
6236.920000,-0.708543
6239.920000,-0.697940
6242.918000,-0.696818
6245.918000,-0.702798
6248.918000,-0.691885
6251.918000,-0.693255
6254.919000,-0.691386
6257.917000,-0.686647
6260.918000,-0.672712
6263.918000,-0.698817
6266.916000,-0.682523
6269.916000,-0.681833
6272.916000,-0.687082
6275.917000,-0.667341
6278.917000,-0.686035
6281.915000,-0.665251
6284.915000,-0.684543
6287.915000,-0.663133
6290.915000,-0.663554
6293.916000,-0.659203
6296.914000,-0.674324
6299.914000,-0.674184
6302.914000,-0.657734
6305.914000,-0.676975
6308.914000,-0.661093
6311.914000,-0.676516
6314.913000,-0.656375
6317.913000,-0.674681
6320.913000,-0.666971
6323.913000,-0.648600
6326.913000,-0.673644
6329.911000,-0.655008
6332.912000,-0.667539
6335.912000,-0.648549
6338.911000,-0.654495
6341.911000,-0.669704
6344.911000,-0.672016
6347.911000,-0.657354
6350.911000,-0.651717
6353.910000,-0.669806
6356.910000,-0.660495
6359.910000,-0.648546
6362.910000,-0.650409
6365.910000,-0.673114
6368.908000,-0.658326
6371.909000,-0.651639
6374.909000,-0.679899
6377.908000,-0.675847
6380.908000,-0.670054
6383.908000,-0.678022
6386.908000,-0.681184
6389.908000,-0.680147
6392.907000,-0.659458
6395.907000,-0.682214
6398.907000,-0.671594
6401.907000,-0.682513
6404.907000,-0.683108
6407.907000,-0.679484
6410.906000,-0.684726
6413.906000,-0.677815
6416.906000,-0.678597
6419.906000,-0.685797
6422.906000,-0.680858
6425.904000,-0.700364
6428.904000,-0.693582
6431.905000,-0.693799
6434.905000,-0.705177
6437.905000,-0.699942
6440.903000,-0.696849
6443.903000,-0.704827
6446.903000,-0.709331
6449.904000,-0.686293
6452.903000,-0.717847
6455.902000,-0.712388
6458.902000,-0.717038
6461.902000,-0.718551
6464.902000,-0.715066
6467.902000,-0.726203
6470.903000,-0.725122
6473.901000,-0.711867
6476.901000,-0.723878
6479.901000,-0.727389
6482.901000,-0.734311
6485.901000,-0.728525
6488.900000,-0.734974
6491.900000,-0.721587
6494.900000,-0.743323
6497.900000,-0.750125
6500.900000,-0.750526
6503.900000,-0.750390
6506.898000,-0.744924
6509.899000,-0.744648
6512.899000,-0.755581
6515.899000,-0.761109
6518.899000,-0.761024
6521.897000,-0.741766
6524.897000,-0.731047
6527.898000,-0.749520
6530.898000,-0.764661
6533.898000,-0.761493
6536.896000,-0.767109
6539.896000,-0.765290
6542.897000,-0.774944
6545.895000,-0.777287
6548.896000,-0.774574
6551.896000,-0.756938
6554.896000,-0.766419
6557.896000,-0.775631
6560.895000,-0.757220
6563.895000,-0.782206
6566.896000,-0.777875
6569.894000,-0.775635
6572.894000,-0.783392
6575.894000,-0.770556
6578.894000,-0.775410
6581.894000,-0.784929
6584.892000,-0.774234
6587.893000,-0.792550
6590.893000,-0.796613
6593.893000,-0.772963
6596.893000,-0.796694
6599.893000,-0.792047
6602.891000,-0.799142
6605.892000,-0.793791
6608.892000,-0.779602
6611.892000,-0.783956
6614.892000,-0.801059
6617.890000,-0.795545
6620.890000,-0.801729
6623.890000,-0.805441
6626.890000,-0.794036
6629.891000,-0.811047
6632.889000,-0.811349
6635.889000,-0.813590
6638.889000,-0.811924
6641.889000,-0.815782
6644.890000,-0.817992
6647.890000,-0.812556
6650.888000,-0.818689
6653.888000,-0.803707
6656.888000,-0.807042
6659.888000,-0.821099
6662.888000,-0.815510
6665.887000,-0.811907
6668.887000,-0.823414
6671.887000,-0.823390
6674.887000,-0.819790
6677.887000,-0.829414
6680.885000,-0.832712
6683.886000,-0.832878
6686.886000,-0.819515
6689.886000,-0.807746
6692.886000,-0.832871
6695.884000,-0.833408
6698.884000,-0.825022
6701.884000,-0.804649
6704.885000,-0.828204
6707.885000,-0.832290
6710.885000,-0.815262
6713.883000,-0.836964
6716.883000,-0.820059
6719.883000,-0.822132
6722.884000,-0.842740
6725.884000,-0.839616
6728.882000,-0.815945
6731.882000,-0.838933
6734.882000,-0.823989
6737.882000,-0.821572
6740.882000,-0.824294
6743.883000,-0.833160
6746.881000,-0.814368
6749.881000,-0.835506
6752.881000,-0.812094
6755.881000,-0.830801
6758.881000,-0.816153
6761.880000,-0.829288
6764.880000,-0.827344
6767.880000,-0.820011
6770.880000,-0.827204
6773.880000,-0.842692
6776.878000,-0.840595
6779.878000,-0.833204
6782.879000,-0.818097
6785.879000,-0.837331
6788.879000,-0.833677
6791.878000,-0.813358
6794.878000,-0.824872
6797.878000,-0.829441
6800.877000,-0.808943
6803.877000,-0.814018
6806.877000,-0.805774
6809.877000,-0.824277
6812.877000,-0.812223
6815.875000,-0.810958
6818.875000,-0.826477
6821.877000,-0.806029
6824.875000,-0.813933
6827.875000,-0.813923
6830.875000,-0.796014
6833.875000,-0.816690
6836.875000,-0.801929
6839.876000,-0.792411
6842.874000,-0.792476
6845.874000,-0.793560
6848.874000,-0.802827
6851.874000,-0.790715
6854.874000,-0.784429
6857.872000,-0.806073
6860.874000,-0.802314
6863.874000,-0.786700
6866.872000,-0.780605
6869.872000,-0.790514
6872.872000,-0.801205
6875.872000,-0.783049
6878.873000,-0.772718
6881.871000,-0.790184
6884.871000,-0.776512
6887.871000,-0.787492
6890.871000,-0.764807
6893.871000,-0.788882
6896.869000,-0.776852
6899.870000,-0.766099
6902.870000,-0.766065
6905.870000,-0.763570
6908.870000,-0.777175
6911.868000,-0.760629
6914.868000,-0.771572
6917.869000,-0.764539
6920.869000,-0.770586
6923.869000,-0.753616
6926.869000,-0.770076
6929.867000,-0.757798
6932.867000,-0.753208
6935.867000,-0.752409
6938.867000,-0.752379
6941.867000,-0.756683
6944.867000,-0.735096
6947.867000,-0.742041
6950.866000,-0.744784
6953.866000,-0.731499
6956.867000,-0.737438
6959.867000,-0.738434
6962.865000,-0.741990
6965.866000,-0.731472
6968.864000,-0.729759
6971.864000,-0.732084
6974.864000,-0.716260
6977.865000,-0.735470
6980.865000,-0.727253
6983.863000,-0.706734
6986.863000,-0.729477
6989.863000,-0.711667
6992.863000,-0.720308
6995.864000,-0.718571
6998.864000,-0.707282
7001.862000,-0.714108
7004.862000,-0.691882
7007.862000,-0.700170
7010.862000,-0.689526
7013.862000,-0.702703
7016.861000,-0.695220
7019.861000,-0.702213
7022.861000,-0.696308
7025.861000,-0.686300
7028.861000,-0.689305
7031.859000,-0.692140
7034.860000,-0.686287
7037.860000,-0.671659
7040.860000,-0.689659
7043.860000,-0.669745
7046.860000,-0.667895
7049.858000,-0.667950
7052.858000,-0.671142
7055.859000,-0.660124
7058.859000,-0.655304
7061.859000,-0.678651
7064.857000,-0.658122
7067.857000,-0.655566
7070.857000,-0.651265
7073.858000,-0.669163
7076.858000,-0.647927
7079.858000,-0.664034
7082.857000,-0.647210
7085.857000,-0.653128
7088.855000,-0.666158
7091.855000,-0.650582
7094.856000,-0.636709
7097.856000,-0.660658
7100.856000,-0.636777
7103.856000,-0.653485
7106.854000,-0.642478
7109.854000,-0.637045
7112.855000,-0.646754
7115.855000,-0.626157
7118.855000,-0.637916
7121.853000,-0.641947
7124.853000,-0.647951
7127.853000,-0.626762
7130.853000,-0.635971
7133.854000,-0.643222
7136.852000,-0.625511
7139.852000,-0.626572
7142.852000,-0.640659
7145.852000,-0.632745
7148.852000,-0.627381
7151.851000,-0.639109
7154.851000,-0.631460
7157.851000,-0.619086
7160.851000,-0.616825
7163.850000,-0.638905
7166.850000,-0.611672
7169.850000,-0.624216
7172.851000,-0.632062
7175.849000,-0.604982
7178.849000,-0.627095
7181.849000,-0.627041
7184.849000,-0.619783
7187.849000,-0.613236
7190.850000,-0.630042
7193.848000,-0.606586
7196.848000,-0.628815
7199.848000,-0.618913
7202.848000,-0.603353
7205.848000,-0.616179
